dt: 0.01 CellNx: 12 b: 5.26 noParticles: 2048
Kinetic energy     Potential energy   Total energy   Temperature         Pressure   Average displacement
2526.18            13832.9               16359.1         0.822325         4.33243         0.347514
2260.86            13566.3               15827.1         0.735958         4.91958         0.671969
1842.68            13143.7               14986.4         0.59983         5.85015         0.949886
1357.64            12651.9               14009.6         0.441941         6.91288         1.16519
940.969            12232.7               13173.6         0.306305         7.81437         1.31716
713.858            12001.2               12715.1         0.232376         8.32318         1.42447
706.24            11994.3               12700.6         0.229896         8.37227         1.51722
845.731            12139.4               12985.1         0.275303         8.10565         1.62153
1024.85            12323.1               13347.9         0.333611         7.71568         1.74937
1165.76            12464.8               13630.6         0.379478         7.40512         1.89959
1237.54            12535.4               13772.9         0.402846         7.24807         2.064
1246.77            12541.3               13788.1         0.405849         7.21865         2.23324
1221.48            12511.8               13733.3         0.397618         7.27617         2.40077
1195.89            12482.4               13678.3         0.389287         7.35634         2.56457
1196.21            12480               13676.2         0.38939         7.3921         2.72687
1233.1            12516.1               13749.2         0.401401         7.3228         2.89217
1301.19            12584.8               13886         0.423566         7.18948         3.06506
1383.72            12668.6               14052.4         0.450428         7.02459         3.24841
1460.44            12744.7               14205.2         0.475403         6.85787         3.44255
1513.39            12796.4               14309.8         0.49264         6.73332         3.64545
1532.66            12813.9               14346.6         0.498914         6.68264         3.85317
1518.71            12799.6               14318.3         0.494372         6.6864         4.06123
1479.93            12758.3               14238.3         0.481749         6.76602         4.26571
1430.96            12706.3               14137.3         0.465807         6.87364         4.46415
1387.84            12661.8               14049.6         0.451769         6.95645         4.65622
1360.87            12633.3               13994.1         0.442991         7.01807         4.84352
1352.18            12624.9               13977.1         0.440163         7.04646         5.02847
1357.9            12633.1               13991         0.442024         7.05519         5.21351
1371.48            12646.8               14018.3         0.446444         7.02818         5.4004
1386.31            12662.3               14048.6         0.451274         6.99531         5.59004
1395.95            12673.5               14069.5         0.454412         6.97772         5.78217
1394.77            12672.7               14067.5         0.454027         6.96414         5.97538
1381.72            12657.8               14039.5         0.44978         6.98333         6.16737
1361.75            12637.3               13999         0.443277         7.02304         6.35615
1342.83            12617.8               13960.7         0.437118         7.05931         6.54066
1332.23            12606.2               13938.4         0.43367         7.10379         6.72132
1332.79            12606.3               13939.1         0.43385         7.10269         6.89976
1342.13            12615.4               13957.6         0.436892         7.08556         7.07803
1355.44            12628.9               13984.3         0.441224         7.05354         7.25806
1367.91            12640.9               14008.8         0.445284         7.0157         7.44102
1376.42            12649.2               14025.6         0.448053         6.9843         7.62719
1380.28            12653               14033.2         0.449311         6.98517         7.81591
1381.64            12654.7               14036.4         0.449753         6.98477         8.00607
1383.48            12655.8               14039.3         0.450352         6.99126         8.19674
1388.06            12659               14047.1         0.451844         7.00161         8.38746
1395.77            12665.7               14061.5         0.454351         6.98208         8.57829
1404.64            12674.4               14079         0.457239         6.96114         8.76951
1412.58            12680.6               14093.1         0.459823         6.9429         8.96138
1418.8            12686.6               14105.4         0.46185         6.91271         9.15396
1422.7            12691.1               14113.8         0.463117         6.89289         9.34716
1423.62            12691.9               14115.5         0.463417         6.90359         9.54046
1421.41            12689.4               14110.8         0.462699         6.91014         9.73338
1415.68            12683.4               14099.1         0.460833         6.93756         9.92555
1405.71            12672.9               14078.6         0.457588         6.95123         10.1166
1391.1            12658.9               14050         0.452832         6.98497         10.3061
1374.13            12643               14017.2         0.447308         7.03132         10.4933
1359.15            12628.2               13987.3         0.442433         7.05245         10.678
1349.87            12616.8               13966.7         0.439411         7.07516         10.8607
1347.61            12614.5               13962.1         0.438676         7.08726         11.0424
1351.26            12617.6               13968.8         0.439862         7.06503         11.224
1358.82            12624.9               13983.7         0.442323         7.06145         11.4062
1368.55            12633.2               14001.8         0.445493         7.05868         11.5896
1378.11            12643.3               14021.4         0.448605         7.04222         11.774
1384.01            12648.1               14032.1         0.450524         7.04038         11.9589
1383.84            12647.8               14031.6         0.450468         7.02869         12.1434
1379.14            12641.8               14020.9         0.448939         7.04378         12.3263
1375.27            12638.2               14013.5         0.447679         7.05616         12.5076
1377.52            12640.7               14018.2         0.44841         7.05508         12.6884
1386.38            12651.7               14038.1         0.451294         7.0352         12.8706
1397.62            12661.5               14059.1         0.454953         6.9922         13.0556
1406.79            12670.8               14077.6         0.457939         6.95985         13.2437
1410.95            12674.2               14085.1         0.459295         6.94897         13.4342
1409.87            12673.3               14083.1         0.458942         6.95189         13.6254
1405.29            12668.8               14074.1         0.457451         6.96665         13.8159
1398.97            12662.2               14061.2         0.455393         6.98257         14.0048
1392.39            12655.3               14047.7         0.453253         7.00268         14.1915
1386.32            12647.6               14033.9         0.451275         7.02641         14.3763
1381.26            12641.2               14022.4         0.44963         7.0367         14.5599
1378.13            12638               14016.1         0.448611         7.04853         14.7433
1376.7            12636.4               14013.1         0.448144         7.05921         14.9274
1375.58            12634.2               14009.8         0.447781         7.06875         15.1125
1374.25            12632.4               14006.6         0.447347         7.06908         15.2982
1374.13            12631.8               14006         0.447308         7.07668         15.4836
1377.26            12634.6               14011.9         0.448325         7.06828         15.6685
1384.28            12641.1               14025.4         0.450613         7.05747         15.8533
1393.5            12649.7               14043.2         0.453615         7.02576         16.0386
1400.83            12657.6               14058.4         0.456         7.00544         16.2249
1402.04            12658.3               14060.3         0.456393         7.01457         16.412
1396.19            12651.7               14047.9         0.454489         7.02677         16.5991
1387.11            12641.2               14028.4         0.451535         7.05061         16.7851
1380.09            12633               14013.1         0.449248         7.06917         16.9699
1377.94            12630.7               14008.7         0.448548         7.09013         17.1539
1380.18            12632.7               14012.8         0.449276         7.10748         17.3381
1383.68            12636.2               14019.9         0.450418         7.10957         17.523
1385.47            12637.8               14023.2         0.451         7.09483         17.709
1385.08            12636.6               14021.7         0.450874         7.0903         17.8957
1384.94            12636.2               14021.1         0.450828         7.08682         18.0828
1387.29            12637.8               14025.1         0.451591         7.06115         18.2702
1392.01            12644.4               14036.4         0.453129         7.03871         18.4575
1396.67            12648.7               14045.4         0.454645         7.0283         18.6445
1399.46            12650.7               14050.2         0.455553         7.03026         18.8307
1400.48            12650.2               14050.7         0.455885         7.03059         19.016
1399.89            12649               14048.9         0.455693         7.03889         19.2007
1397.29            12645.3               14042.5         0.454846         7.04047         19.3855
1393.43            12642.6               14036         0.453591         7.05078         19.5705
1391.38            12640.5               14031.9         0.452922         7.04527         19.7558
1394.12            12642               14036.1         0.453815         7.04673         19.9417
1401.64            12650.1               14051.8         0.456263         7.02993         20.1289
1410.88            12662.4               14073.3         0.459271         7.00438         20.3175
1416.85            12668.3               14085.2         0.461214         6.98325         20.5078
1415.66            12665.8               14081.5         0.460827         6.97821         20.6988
1406.71            12656               14062.7         0.457915         6.97745         20.8897
1392.21            12642               14034.3         0.453194         7.01576         21.0795
1377.33            12626.3               14003.6         0.448351         7.06174         21.2678
1367.38            12615.6               13982.9         0.44511         7.08796         21.4547
1365.44            12613.4               13978.8         0.444479         7.09563         21.6413
1370.95            12618.9               13989.9         0.446273         7.08359         21.8283
1380.06            12627               14007         0.449238         7.0802         22.0164
1388.79            12635.7               14024.5         0.45208         7.06411         22.2049
1395.71            12641               14036.7         0.454333         7.04875         22.3932
1400.07            12645.1               14045.2         0.455752         7.05133         22.5808
1401.16            12644.6               14045.8         0.456108         7.04442         22.7674
1399.33            12642.7               14042         0.455513         7.04207         22.9532
1396.05            12637.8               14033.8         0.454442         7.04695         23.1386
1393.2            12634.1               14027.3         0.453516         7.05422         23.3243
1391.97            12632.2               14024.2         0.453115         7.05026         23.5108
1393.33            12632.1               14025.5         0.453558         7.04749         23.6984
1398.2            12637.6               14035.8         0.455144         7.04129         23.8872
1406.14            12645.8               14051.9         0.457727         7.02669         24.0774
1414.11            12653.8               14068         0.460323         7.02429         24.269
1418.73            12656.9               14075.6         0.461825         6.99623         24.4612
1419.16            12657.4               14076.5         0.461967         6.97965         24.6534
1416.74            12656.3               14073.1         0.461178         6.98863         24.8448
1413.01            12653.1               14066.2         0.459963         6.98021         25.0352
1408.08            12649.7               14057.7         0.458358         6.98846         25.225
1400.21            12642.3               14042.5         0.455798         7.00668         25.4142
1388.85            12629.7               14018.5         0.452099         7.03362         25.6026
1377.12            12616               13993.1         0.448282         7.06286         25.7903
1370.37            12609.6               13980         0.446085         7.07795         25.9773
1371.88            12610.9               13982.8         0.446576         7.09953         26.1644
1381.1            12619.5               14000.6         0.449578         7.0843         26.3524
1394.2            12632               14026.2         0.45384         7.05853         26.5418
1406.36            12642.9               14049.3         0.457798         7.02793         26.7326
1414            12650.8               14064.8         0.460287         7.01887         26.9242
1416.05            12651.1               14067.2         0.460955         7.00654         27.1158
1413.8            12646.6               14060.4         0.460221         7.00888         27.3071
1409.13            12642.1               14051.2         0.458702         7.02984         27.4978
1403.73            12637.3               14041         0.456945         7.02064         27.6878
1399.64            12632.4               14032.1         0.455611         7.04017         27.877
1399.19            12630.7               14029.9         0.455466         7.03866         28.0657
1403.89            12635.5               14039.4         0.456994         7.03332         28.2544
1412.43            12643.3               14055.8         0.459775         7.02763         28.444
1420.48            12651.5               14071.9         0.462395         7.02627         28.6349
1421.98            12652.6               14074.6         0.462884         7.01661         28.8269
1413.08            12643               14056.1         0.459987         7.03999         29.0193
1396.04            12625.4               14021.5         0.454441         7.08227         29.2107
1378.22            12605.6               13983.8         0.448638         7.12418         29.4007
1366.27            12591.5               13957.8         0.444751         7.16146         29.5897
1363.23            12588.9               13952.2         0.44376         7.1727         29.7783
1368.68            12596               13964.7         0.445535         7.15196         29.9673
1378.47            12606.3               13984.8         0.448722         7.1425         30.1571
1387.91            12614.2               14002.1         0.451794         7.13574         30.3477
1394.99            12619.9               14014.9         0.454097         7.12451         30.5387
1401.05            12626.4               14027.5         0.45607         7.1127         30.7298
1407.48            12632.4               14039.8         0.458163         7.10172         30.9212
1413.7            12639               14052.7         0.460187         7.06202         31.1131
1417.15            12641.2               14058.4         0.461312         7.05117         31.3052
1414.85            12639               14053.9         0.460563         7.05438         31.4972
1407.39            12630.9               14038.3         0.458133         7.07535         31.6885
1399.8            12622.3               14022.1         0.455664         7.09001         31.879
1396.17            12618.5               14014.6         0.454481         7.10571         32.069
1396.43            12618.9               14015.3         0.454566         7.1005         32.2591
1398.33            12621.3               14019.6         0.455184         7.09558         32.4495
1400.04            12622.1               14022.1         0.455743         7.1068         32.6404
1401.58            12623.8               14025.3         0.456245         7.10948         32.8317
1403.82            12625.7               14029.5         0.456973         7.10483         33.0234
1406.64            12629.3               14036         0.45789         7.09016         33.2156
1408.86            12630.5               14039.4         0.458612         7.07204         33.408
1410.51            12632.4               14042.9         0.459149         7.06448         33.6003
1411.88            12633.8               14045.7         0.459595         7.07787         33.7924
1412.36            12633.3               14045.7         0.459752         7.07378         33.9842
1411.76            12631.9               14043.7         0.459556         7.08179         34.1758
1410.53            12631.2               14041.7         0.459157         7.08336         34.3672
1410.48            12631.4               14041.9         0.459139         7.0799         34.5584
1412.73            12632.2               14044.9         0.459872         7.07516         34.75
1415.95            12634.2               14050.1         0.460923         7.06603         34.9422
1417.88            12636.7               14054.6         0.461549         7.07258         35.1352
1416.19            12635               14051.2         0.460998         7.06709         35.3285
1410.53            12628.1               14038.6         0.459157         7.09299         35.5215
1403.13            12620.8               14023.9         0.456747         7.10053         35.7137
1396.8            12613.8               14010.6         0.454687         7.0995         35.9053
1394.43            12610               14004.4         0.453915         7.1046         36.097
1397.83            12613               14010.8         0.455021         7.10846         36.2895
1407.89            12623.5               14031.4         0.458299         7.08895         36.4836
1422.87            12637.7               14060.6         0.463173         7.05175         36.6797
1437.52            12653.2               14090.7         0.467942         7.02413         36.8774
1445.82            12661.4               14107.2         0.470645         7.00892         37.0757
1444.86            12659               14103.9         0.470334         7.00978         37.2734
1437.1            12649.7               14086.8         0.467805         7.03158         37.4692
1428.11            12639.7               14067.8         0.464881         7.04314         37.6632
1422.29            12633.3               14055.6         0.462987         7.05442         37.8559
1419.46            12630.7               14050.1         0.462063         7.07003         38.0484
1416.3            12627.9               14044.2         0.461034         7.07999         38.2408
1411.06            12622.3               14033.3         0.45933         7.09353         38.4328
