dt: 0.01 CellNx: 4 b: 5.26 noParticles: 2048
Kinetic energy     Potential energy   Total energy   Temperature         Pressure   Average displacement    Radial distribution
0            0               0         100         108.514         0.000255337
0            0               0         0.739942         1.55127         0.000935275
0            0               0         0.811534         2.89061         0.00207855
0            0               0         0.804618         4.54852         0.00361999
0            0               0         0.737982         6.18615         0.00541851
0            0               0         0.658798         7.45779         0.00731871
0            0               0         0.633276         8.18685         0.00922612
0            0               0         0.708381         8.45524         0.0111429
0            0               0         0.86286         8.64851         0.0131407
0            0               0         1.0182         9.1272         0.0152931
0            0               0         1.11298         9.9327         0.0176146
0            0               0         1.13779         10.9185         0.0200492
0            0               0         1.12161         11.8767         0.0224996
0            0               0         1.1071         12.6032         0.0248731
0            0               0         1.12919         13.011         0.0271193
0            0               0         1.20037         13.2281         0.0292453
0            0               0         1.30701         13.4058         0.0312987
0            0               0         1.42148         13.6957         0.0333406
0            0               0         1.5141         14.0854         0.0354111
0            0               0         1.56831         14.5068         0.0375144
0            0               0         1.59173         14.9643         0.0396274
0            0               0         1.60111         15.3559         0.0417129
0            0               0         1.6127         15.6204         0.0437406
0            0               0         1.63945         15.8325         0.0457035
0            0               0         1.67913         16.0671         0.0476092
0            0               0         1.72485         16.2442         0.0494675
0            0               0         1.77402         16.3972         0.0512955
0            0               0         1.82381         16.5513         0.053114
0            0               0         1.86734         16.7126         0.054944
0            0               0         1.8915         17.0061         0.0567905
0            0               0         1.89501         17.2602         0.058628
0            0               0         1.89685         17.4262         0.0604287
0            0               0         1.91639         17.6012         0.0621876
0            0               0         1.95276         17.788         0.0639174
0            0               0         1.99066         17.9716         0.0656349
0            0               0         2.02012         18.2279         0.067352
0            0               0         2.03351         18.4952         0.0690621
0            0               0         2.03479         18.6794         0.0707453
0            0               0         2.03677         18.815         0.0723888
0            0               0         2.04708         18.9278         0.0739891
0            0               0         2.07201         19.0231         0.0755572
0            0               0         2.10308         19.1286         0.0771105
0            0               0         2.1265         19.2846         0.0786604
0            0               0         2.13917         19.5112         0.0802055
0            0               0         2.14253         19.6506         0.0817312
0            0               0         2.14184         19.766         0.0832238
0            0               0         2.14161         19.8328         0.0846705
0            0               0         2.14303         19.8555         0.0860611
0            0               0         2.15251         19.847         0.0873986
0            0               0         2.17243         19.8184         0.0886943
0            0               0         2.19813         19.8113         0.0899687
0            0               0         2.22231         19.9158         0.091248
0            0               0         2.23651         20.0952         0.092545
0            0               0         2.2374         20.3125         0.0938478
0            0               0         2.23458         20.4964         0.0951338
0            0               0         2.24206         20.5083         0.0963914
0            0               0         2.26076         20.4831         0.0976343
0            0               0         2.28184         20.5943         0.0988892
0            0               0         2.29717         20.7543         0.100166
0            0               0         2.3055         20.876         0.101461
0            0               0         2.30783         20.889         0.102767
0            0               0         2.30927         21.0287         0.104084
0            0               0         2.31234         21.0433         0.105407
0            0               0         2.31932         20.9746         0.106746
0            0               0         2.33029         20.938         0.108116
0            0               0         2.3382         20.979         0.109524
0            0               0         2.33773         21.0436         0.110967
0            0               0         2.33203         21.0382         0.112432
0            0               0         2.32891         21.1236         0.113912
0            0               0         2.33043         21.1627         0.115406
0            0               0         2.33304         21.2204         0.116918
0            0               0         2.33494         21.3428         0.118442
0            0               0         2.34006         21.3697         0.119969
0            0               0         2.35319         21.4205         0.121499
0            0               0         2.36646         21.538         0.12304
0            0               0         2.37449         21.6176         0.124592
0            0               0         2.37975         21.6386         0.126148
0            0               0         2.37961         21.6827         0.127706
0            0               0         2.36942         21.7353         0.129262
0            0               0         2.35806         21.8953         0.130803
0            0               0         2.35506         21.9624         0.132331
0            0               0         2.3602         21.9636         0.133854
0            0               0         2.37551         21.932         0.135393
0            0               0         2.39823         21.8526         0.136983
0            0               0         2.41923         21.8512         0.138663
0            0               0         2.4289         22.0265         0.140449
0            0               0         2.42605         22.1287         0.142325
0            0               0         2.42654         22.1416         0.144293
0            0               0         2.43784         22.0882         0.146362
0            0               0         2.45186         22.1163         0.148552
0            0               0         2.4497         22.1848         0.150866
0            0               0         2.42343         22.2531         0.153278
0            0               0         2.38918         22.3098         0.155753
0            0               0         2.36759         22.3781         0.15826
0            0               0         2.36523         22.4001         0.160787
0            0               0         2.37446         22.4413         0.163336
0            0               0         2.38749         22.5         0.165913
0            0               0         2.39635         22.5295         0.168514
0            0               0         2.39773         22.5384         0.171134
0            0               0         2.39466         22.5674         0.173769
0            0               0         2.38739         22.6603         0.176416
0            0               0         2.37832         22.7203         0.179064
0            0               0         2.37449         22.8531         0.181717
0            0               0         2.37428         23.0488         0.184381
0            0               0         2.37248         23.1678         0.18706
0            0               0         2.37347         23.1667         0.189758
0            0               0         2.38181         23.1132         0.192481
0            0               0         2.39721         23.0162         0.195238
0            0               0         2.4122         23.0211         0.198049
0            0               0         2.42238         23.012         0.200922
0            0               0         2.43001         23.0782         0.203855
0            0               0         2.42775         23.1831         0.206833
0            0               0         2.41657         23.3002         0.209843
0            0               0         2.40228         23.4097         0.212877
0            0               0         2.38547         23.3713         0.215925
0            0               0         2.37657         23.3783         0.218982
0            0               0         2.38039         23.355         0.222051
0            0               0         2.3902         23.4045         0.22514
0            0               0         2.3983         23.4419         0.228258
0            0               0         2.4046         23.5279         0.231421
0            0               0         2.41304         23.5893         0.234645
0            0               0         2.42087         23.571         0.237933
0            0               0         2.42161         23.5235         0.241278
0            0               0         2.41662         23.3794         0.244674
0            0               0         2.41276         23.3492         0.248124
0            0               0         2.41133         23.4326         0.251613
0            0               0         2.40783         23.4842         0.255118
0            0               0         2.4022         23.5619         0.258612
0            0               0         2.39689         23.6335         0.262075
0            0               0         2.39959         23.6027         0.265496
0            0               0         2.41669         23.5441         0.268906
0            0               0         2.43616         23.5401         0.272337
0            0               0         2.44406         23.5639         0.275819
0            0               0         2.44475         23.5593         0.279361
0            0               0         2.4435         23.665         0.282956
0            0               0         2.43771         23.7469         0.286612
0            0               0         2.43737         23.8111         0.290329
0            0               0         2.45223         23.8607         0.29411
0            0               0         2.47347         23.928         0.29796
0            0               0         2.49038         23.8358         0.301872
0            0               0         2.5015         23.7744         0.305872
0            0               0         2.4973         23.7956         0.30999
0            0               0         2.4767         23.9042         0.314202
0            0               0         2.45323         23.9022         0.318471
0            0               0         2.44379         23.8009         0.32278
0            0               0         2.45386         23.82         0.327139
0            0               0         2.46646         23.8657         0.331565
0            0               0         2.47101         23.8307         0.336049
0            0               0         2.47124         23.8761         0.340593
0            0               0         2.47036         23.912         0.345198
0            0               0         2.46573         23.8918         0.349862
0            0               0         2.45693         23.9107         0.354587
0            0               0         2.44861         24.0159         0.359376
0            0               0         2.43852         24.1506         0.36422
0            0               0         2.43184         24.2569         0.36909
0            0               0         2.43002         24.3948         0.373988
0            0               0         2.42093         24.4975         0.378895
0            0               0         2.40814         24.583         0.383798
0            0               0         2.4092         24.6465         0.388702
0            0               0         2.43177         24.6054         0.393605
0            0               0         2.46845         24.4573         0.398531
0            0               0         2.50273         24.3805         0.40351
0            0               0         2.52232         24.3103         0.408534
0            0               0         2.52531         24.309         0.413599
0            0               0         2.51511         24.3061         0.418693
0            0               0         2.50039         24.1942         0.423751
0            0               0         2.49339         24.1251         0.428742
0            0               0         2.49926         24.1582         0.433688
0            0               0         2.51059         24.1912         0.438615
0            0               0         2.52066         24.197         0.443515
0            0               0         2.52761         24.2162         0.448396
0            0               0         2.52586         24.3146         0.45327
0            0               0         2.5107         24.4507         0.458121
0            0               0         2.48557         24.4745         0.46293
0            0               0         2.45959         24.4862         0.467681
0            0               0         2.44231         24.4161         0.472399
0            0               0         2.43693         24.3896         0.477152
0            0               0         2.44031         24.3287         0.481995
0            0               0         2.44968         24.2414         0.486983
0            0               0         2.46526         24.2573         0.492141
0            0               0         2.48156         24.3082         0.497462
0            0               0         2.49039         24.4127         0.502909
0            0               0         2.49304         24.5506         0.508449
0            0               0         2.49874         24.5638         0.514032
0            0               0         2.51249         24.5005         0.519616
0            0               0         2.52572         24.4299         0.525172
0            0               0         2.52967         24.3198         0.530666
0            0               0         2.52576         24.2091         0.536073
0            0               0         2.51649         24.0836         0.541339
0            0               0         2.50476         23.8966         0.546432
0            0               0         2.49632         23.7501         0.551361
0            0               0         2.48641         23.7643         0.55616
0            0               0         2.47399         23.9374         0.560898
0            0               0         2.47027         24.0377         0.565649
0            0               0         2.47913         24.0728         0.570467
0            0               0         2.49084         24.2373         0.575397
0            0               0         2.49247         24.4427         0.580431
0            0               0         2.48631         24.5151         0.585579
0            0               0         2.47938         24.4952         0.590849
0            0               0         2.47463         24.3804         0.596243
6837.23            -9704.17               -2866.93         2.47339         24.3476         0.601763
6199.92            -9735.12               -3535.2         2.22566         23.9895         0.607002
5718.64            -9787.56               -4068.92         2.0182         23.5985         0.611805
5369.07            -9884.68               -4515.62         1.86154         23.1279         0.616098
5123.07            -9990.41               -4867.35         1.74774         22.6621         0.619841
4947.35            -10110.3               -5162.97         1.66767         22.1906         0.623055
4793.69            -10210.5               -5416.8         1.61047         21.7931         0.625794
4634.75            -10280.9               -5646.16         1.56045         21.4841         0.628097
4455.68            -10373.6               -5917.88         1.50871         21.1331         0.630012
4249.23            -10446.8               -6197.58         1.45042         20.8313         0.631596
4038.76            -10509.9               -6471.13         1.38321         20.548         0.632879
3857.23            -10597.1               -6739.9         1.3147         20.2035         0.633885
3722.85            -10697.3               -6974.43         1.25561         19.8339         0.634642
3621.42            -10801.6               -7180.22         1.21186         19.4673         0.635192
3531.93            -10947.7               -7415.74         1.17885         19.0142         0.635586
3436.06            -11097.9               -7661.8         1.14972         18.5615         0.635876
3318.39            -11233.6               -7915.25         1.11851         18.1496         0.636107
3182.95            -11351.8               -8168.87         1.08021         17.7801         0.636316
3040.86            -11463.4               -8422.49         1.03612         17.426         0.636521
2902.23            -11554.5               -8652.27         0.989865         17.1208         0.636728
2773.64            -11647.9               -8874.27         0.944736         16.8121         0.636922
2651.38            -11731               -9079.66         0.902878         16.531         0.637086
2538.06            -11801.7               -9263.64         0.863081         16.2815         0.637219
2437.12            -11883.9               -9446.81         0.826191         16.0077         0.637319
2343.37            -11961.5               -9618.17         0.793333         15.7498         0.637392
2250.15            -12056.2               -9806.06         0.762816         15.4555         0.637443
2151.55            -12156.2               -10004.6         0.73247         15.1512         0.63748
2049.14            -12241               -10191.9         0.700376         14.8831         0.637512
1953.47            -12332.8               -10379.3         0.667039         14.5986         0.637543
1871.19            -12421.7               -10550.5         0.635896         14.3243         0.637577
1798.94            -12508.5               -10709.5         0.60911         14.0613         0.637623
1728.62            -12598.4               -10869.8         0.585591         13.7971         0.637691
1653.34            -12683.9               -11030.6         0.562701         13.548         0.637791
1571.04            -12756.5               -11185.5         0.538198         13.3312         0.637913
1489.55            -12819.2               -11329.6         0.511405         13.1373         0.638043
1419.43            -12888               -11468.5         0.484879         12.9289         0.638165
1363.56            -12959.6               -11596         0.462054         12.7161         0.638263
1316.97            -13036.5               -11719.5         0.443869         12.494         0.638332
